a.scale: 3He(a,g)
0.9778811   0.9793732   0.9795088   0.9837376   0.9763658   0.9737053
0.9747422   0.9751941   0.9737181   0.9858107   0.9798773   0.9757077
0.9751669   0.9737348   0.9740149   0.9631018   0.9583017   0.9598848
0.9558218   0.9550877   0.9502039   0.9497491   0.9500936   0.9495971
0.9509391   0.9555178   0.9521763   0.9452142   0.9513816   0.9460256
0.9417973   0.9442395   0.9567025   0.9753439   0.9815950   0.9851734
0.9849878   0.9785272   0.9753834   0.9658180   0.9736500   0.9706082
0.9848633   0.9877363   0.9879038   0.9783214   0.9669497   0.9679034
0.9636485   0.9494916   0.9577039   0.9561223   0.9615663   0.9649954
0.9591430   0.9630656   0.9625991   0.9648009   0.9628492   0.9704576
0.9718190   0.9622733   0.9642415   0.9644928   0.9614487   0.9720299
0.9594971   0.9560788   0.9612321   0.9585326   0.9607991   0.9555244
0.9636415   0.9813467   0.9782737   0.9787427   0.9752167   0.9716999
0.9740365   0.9766922   0.9712146   0.9799060   0.9797155   0.9803197
0.9828574   0.9875644   0.9882592   0.9897622   0.9912903   0.9975509
0.9932641   0.9812065   0.9791381   0.9777378   0.9722191   0.9736565
0.9711678   0.9669187   0.9726339   0.9683101   0.9674191   0.9688009
0.9655545   0.9626103   0.9586225   0.9616111   0.9691709   0.9698158
0.9728969   0.9732501   0.9781506   0.9798918   0.9793987   0.9840469
0.9895212   0.9930464   0.9799546   0.9827502   0.9810832   0.9790547
0.9767467   0.9758546   0.9760043   0.9738602   0.9739579   0.9743523
0.9916324   0.9937756   0.9963678   1.0009821   0.9990192   0.9961635
0.9976640   1.0025925   1.0050357   1.0170921   1.0074008   0.9984069
1.0045861   1.0029659   1.0007864   0.9997776   1.0072835   1.0118085
1.0084750   1.0092362   1.0078642   1.0122228   1.0059404   1.0050551
1.0017815   0.9921882   1.0003015   1.0057294   1.0113899   0.9991976
0.9990187   1.0067404   1.0050779   0.9970158   0.9983662   0.9971829
0.9978770   0.9925134   0.9878738   0.9898963   0.9924511   0.9946449
0.9943028   0.9894550   0.9826140   0.9856053   0.9826549   0.9835756
0.9841873   0.9836099   0.9809817   0.9802021   0.9757445   0.9767592
0.9765947   0.9719564   0.9639137   0.9707637   0.9710419   0.9723356
0.9715294   0.9605178   0.9611553   0.9551110   0.9583530   0.9506636
0.9598484   0.9604109   0.9641173   0.9648264   0.9663114   0.9703254
0.9655005   0.9594376   0.9577269   0.9556712   0.9530682   0.9523473
0.9514030   0.9550303   0.9542795   0.9566364   0.9569328   0.9558121
0.9692420   0.9741866   0.9706334   0.9619998   0.9596249   0.9660432
0.9666032   0.9650048   0.9634409   0.9654702   0.9656563   0.9711900
0.9725315   0.9737593   0.9820360   0.9847360   0.9912305   0.9903355
0.9844568   0.9840940   0.9826736   0.9882095   0.9862170   0.9884822
0.9930555   0.9881922   0.9910191   0.9880761   0.9906231   0.9932546
0.9914671   0.9908451   0.9919003   0.9866795   0.9866817   0.9880097
0.9953292   1.0003467   1.0005673   0.9955028   0.9989714   1.0023613
1.0065755   1.0085736   1.0102316   1.0054630   1.0064283   1.0027080
1.0099421   1.0088581   1.0003298   1.0025006   1.0058664   1.0075494
0.9956872   1.0024235   0.9992962   0.9921910   0.9968025   0.9951512
0.9927953   0.9958346   0.9857718   0.9765046   0.9757065   0.9795238
0.9768215   0.9781511   0.9724980   0.9703619   0.9682137   0.9655623
0.9640264   0.9616889   0.9620033   0.9562105   0.9520307   0.9563320
0.9563722   0.9680321   0.9663941   0.9643895   0.9659552   0.9661371
0.9625257   0.9605720   0.9602940   0.9499942   0.9595748   0.9623261
0.9696615   0.9696851   0.9682605   0.9694491   0.9698929   0.9655861
0.9705217   0.9713252   0.9727240   0.9727866   0.9865421   0.9741805
0.9785141   0.9627433   0.9758821   0.9812420   0.9832972   0.9772357
0.9682796   0.9713756   0.9598800   0.9564263   0.9569602   0.9506498
0.9556721   0.9524080   0.9512618   0.9530166   0.9500889   0.9451880
0.9503247   0.9545363   0.9551114   0.9560768   0.9572191   0.9565514
0.9587457   0.9525689   0.9550492   0.9613098   0.9557020   0.9571934
0.9650860   0.9590038   0.9636032   0.9645876   0.9722310   0.9718965
0.9717756   0.9645913   0.9657560   0.9671922   0.9635948   0.9674514
0.9502614   0.9531557   0.9588354   0.9538165   0.9549941   0.9654122
0.9661387   0.9681301   0.9655090   0.9473764   0.9576198   0.9599059
0.9579438   0.9548937   0.9510241   0.9546616   0.9495068   0.9553555
0.9483152   0.9490684   0.9567955   0.9643863   0.9601766   0.9558079
0.9540173   0.9545752   0.9548261   0.9561842   0.9535648   0.9489588
0.9519209   0.9567362   0.9491083   0.9471881   0.9475704   0.9538218
0.9477110   0.9472964   0.9513088   0.9538749   0.9411538   0.9423301
0.9525671   0.9522832   0.9577928   0.9589208   0.9610723   0.9621374
0.9627250   0.9690868   0.9647385   0.9626232   0.9632369   0.9676172
0.9703716   0.9806803   0.9813319   0.9787693   0.9843284   0.9849325
0.9848819   0.9843396   0.9917926   0.9964416   0.9946145   0.9955568
0.9887839   0.9888991   0.9923379   0.9985833   0.9972209   0.9986906
0.9898127   0.9929391   0.9784420   0.9788821   0.9791937   0.9792674
0.9765983   0.9798283   0.9781594   0.9785823   0.9770353   0.9770736
0.9847778   0.9857039   0.9883569   0.9882609   0.9773504   0.9798811
0.9739551   0.9743759   0.9734405   0.9717309   0.9720283   0.9774301
0.9780210   0.9719887   0.9722356   0.9735832   0.9777624   0.9762246
0.9754978   0.9682550   0.9498827   0.9517216   0.9488862   0.9534616
0.9674091   0.9613177   0.9602709   0.9637640   0.9609188   0.9586235
0.9596143   0.9613255   0.9653206   0.9539018   0.9624518   0.9670789
0.9662507   0.9744314   0.9771390   0.9770899   0.9783225   0.9790231
0.9691309   0.9705967   0.9711773   0.9723406   0.9767978   0.9906662
0.9943638   0.9986522   0.9993740   0.9995494   0.9887445   0.9898866
0.9928672   0.9900679   0.9899602   0.9776824   0.9801264   0.9781178
0.9803744   0.9800427   0.9690092   0.9514286   0.9539490   0.9526740
0.9573325   0.9511229   0.9471609   0.9498944   0.9531824   0.9558081
0.9634557   0.9635034   0.9644493   0.9669270   0.9653262   0.9642122
0.9725676   0.9744946   0.9844032   0.9821229   0.9884115   0.9906211
0.9889917   0.9889470   0.9939357   0.9941544   0.9764213   0.9758352
0.9741640   0.9755205   0.9664805   0.9677031   0.9685790   0.9599442
0.9606187   0.9636822   0.9651889   0.9635773   0.9623371   0.9604732
0.9615043   0.9595217   0.9609159   0.9613435   0.9574141   0.9593581
0.9587672   0.9571632   0.9626778   0.9646001   0.9556767   0.9561254
0.9461262   0.9471445   0.9585746   0.9591113   0.9573714   0.9529307
0.9467946   0.9412059   0.9482344   0.9441321   0.9439996   0.9421259
0.9416073   0.9444458   0.9442368   0.9438914   0.9514523   0.9445404
0.9386275   0.9389529   0.9359291   0.9416514   0.9348034   0.9279863
0.9272847   0.9391313   0.9375313   0.9333116   0.9332784   0.9358571
0.9390337   0.9321537   0.9282539   0.9304379   0.9318824   0.9291686
0.9303925   0.9377750   0.9387104   0.9468267   0.9459712   0.9603331
0.9599361   0.9596050   0.9617675   0.9617246   0.9610923   0.9512929
0.9660876   0.9642143   0.9648588   0.9590378   0.9598991   0.9638202
0.9644044   0.9630843   0.9589453   0.9623182   0.9617415   0.9611611
0.9670991   0.9675310   0.9619314   0.9509838   0.9468909   0.9430099
0.9471499   0.9410136   0.9532720   0.9465864   0.9466822   0.9474055
0.9534824   0.9442061   0.9449284   0.9544213   0.9510564   0.9524168
0.9530179   0.9464643   0.9443402   0.9418905   0.9521381   0.9579025
0.9542507   0.9510725   0.9539124   0.9557984   0.9510176   0.9478813
0.9460782   0.9479725   0.9460948   0.9451129   0.9367318   0.9369458
0.9292666   0.9295343   0.9284597   0.9260926   0.9304142   0.9328193
0.9364684   0.9377412   0.9401163   0.9404724   0.9415586   0.9421610
0.9392746   0.9280089   0.9260678   0.9444531   0.9360369   0.9387564
0.9362338   0.9367816   0.9341588   0.9322449   0.9340651   0.9373869
0.9386522   0.9412796   0.9389525   0.9429279   0.9378768   0.9299875
0.9298219   0.9428402   0.9443792   0.9456325   0.9473172   0.9265846
0.9374083   0.9269900   0.9193992   0.9199146   0.9137721   0.9143373
0.9163269   0.9240889   0.9351427   0.9455666   0.9532727   0.9467767
0.9491705   0.9534149   0.9549633   0.9566197   0.9600190   0.9617786
0.9620713   0.9776663   0.9762348   0.9761309   0.9719310   0.9737625
0.9747374   0.9662881   0.9655997   0.9650536   0.9701798   0.9766613
0.9734717   0.9747959   0.9656209   0.9660583   0.9635978   0.9663726
0.9636410   0.9637888   0.9713202   0.9630338   0.9524049   0.9492385
0.9571841   0.9459286   0.9511836   0.9531466   0.9469628   0.9532082
0.9491366   0.9513586   0.9562617   0.9602364   0.9580016   0.9562921
0.9573647   0.9462309   0.9514824   0.9491438   0.9499968   0.9486745
0.9502853   0.9536770   0.9488522   0.9511860   0.9502532   0.9556716
0.9584309   0.9647209   0.9716694   0.9749757   0.9713617   0.9716185
0.9728522   0.9597477   0.9624700   0.9703319   0.9677187   0.9653649
0.9683489   0.9734941   0.9741133   0.9712180   0.9677362   0.9734251
0.9702663   0.9667353   0.9673278   0.9756616   0.9753761   0.9767999
0.9832968   0.9798882   0.9795296   0.9722567   0.9717981   0.9564431
0.9683450   0.9637003   0.9639769   0.9644984   0.9604314   0.9673447
0.9693448   0.9775724   0.9785369   0.9794613   0.9694629   0.9666309
0.9706298   0.9685689   0.9796900   0.9708216   0.9756869   0.9804995
0.9821708   0.9857634   0.9800225   0.9825126   0.9815490   0.9838597
0.9861321   0.9821038   0.9919466   0.9919692   0.9929835   0.9890200
0.9996492   0.9919004   0.9957901   0.9967947   0.9966535   0.9972043
0.9936379   0.9927805   0.9905774   0.9876377   0.9904487   0.9912879
0.9991523   0.9965848   0.9966783   1.0025310   1.0043133   1.0051313
1.0087824   1.0040293   1.0089635   1.0044981   0.9985199   1.0064796
1.0048551   1.0025238   0.9995048   1.0076096   1.0053546   1.0057268
0.9943345   0.9963211   0.9952400   0.9922249   0.9926113   1.0013045
1.0013520   1.0084117   1.0110812   1.0010560   0.9962080   0.9850062
0.9858038   0.9803639   0.9799708   0.9681342   0.9670226   0.9627212
0.9646382   0.9629677   0.9526461   0.9455918   0.9445033   0.9438760
0.9364729   0.9353085   0.9331178   0.9419768   0.9425069   0.9377159
0.9329706   0.9363288   0.9368779   0.9356969   0.9346423   0.9399247
0.9400575   0.9436551   0.9401617   0.9337176   0.9357956   0.9321907
0.9325288   0.9467108   0.9342263   0.9276317   0.9209538   0.9222711
0.9269216   0.9322167   0.9333735   0.9231023   0.9300186   0.9298685
0.9276570   0.9285428   0.9220130   0.9261565   0.9253646   0.9245454
0.9438314   0.9396692   0.9336078   0.9344141   0.9626825   0.9623812
0.9641849   0.9679496   0.9677239   0.9579924   0.9595570   0.9573454
0.9591744   0.9470835   0.9513704   0.9459779   0.9454550   0.9456935
0.9617333   0.9623265   0.9619077   0.9556483   0.9550348   0.9628164
0.9619686   0.9641944   0.9566954   0.9539732   0.9516066   0.9497976
0.9562863   0.9593394   0.9556439   0.9543572   0.9543526   0.9567962
0.9672809   0.9623338   0.9684600   0.9603310   0.9610724   0.9563360
0.9569354   0.9621453   0.9653346   0.9631121   0.9645200   0.9644496
0.9590251   0.9597257   0.9537958   0.9526796   0.9476836   0.9473372
0.9467496   0.9461193   0.9411691   0.9383999   0.9492402   0.9433867
0.9536526   0.9595717   0.9589263   0.9671114   0.9691387   0.9656053
0.9642643   0.9591527   0.9579488   0.9580020   0.9553261   0.9523899
0.9487393   0.9539200   0.9504553   0.9598083   0.9591118   0.9586201
0.9694931   0.9648212   0.9706893   0.9755092   0.9828745   0.9888247
0.9852183   0.9972298   0.9906080   0.9949282   0.9947779   0.9881587
0.9905090   0.9883383   0.9803432   0.9803088   0.9812702   0.9690202
0.9699771   0.9473519   0.9400646   0.9425164   0.9439913   0.9418906
0.9445640   0.9379325   0.9299562   0.9376289   0.9387012   0.9426339
0.9362891   0.9401630   0.9389663   0.9266967   0.9350829   0.9412216
0.9459742   0.9414757   0.9437943   0.9431537   0.9411682   0.9439619
0.9463145   0.9534832   0.9625331   0.9628892   0.9571248   0.9449977
0.9625513   0.9629361   0.9609442   0.9621470   0.9724998   0.9720057
0.9727490   0.9726886   0.9708591   0.9709471   0.9697366   0.9667934
0.9714227   0.9778369   0.9698734   0.9734918   0.9750220   0.9759141
0.9741357   0.9713894   0.9669735   0.9700837   0.9737436   0.9711185
0.9673544   0.9679980   0.9724900   0.9699856   0.9668533   0.9508740
0.9524831   0.9594064   0.9580155   0.9611464   0.9612552   0.9591471
0.9581054   0.9663959   0.9631940   0.9714004   0.9758511   0.9996988
0.9860255   0.9887531   0.9871728   0.9979213   1.0037648   1.0008895
0.9985151   0.9964195   0.9956260   0.9909812   1.0004444   0.9949967
0.9938915   0.9952816   0.9962808   0.9897996   0.9874984   0.9874916
0.9886285   0.9892634   0.9903335   1.0009141   1.0109508   1.0112960
1.0028319   0.9995724   0.9990741   0.9977747   0.9980308   0.9955240
1.0047274   1.0060267   1.0023816   0.9931951   0.9971860   1.0010612
1.0016182   0.9988326   0.9987584   0.9862606   1.0019014   0.9891165
0.9901537   1.0022472   1.0034648   0.9963270   0.9890045   0.9906872
0.9988715   1.0069358   1.0033562   1.0045283   0.9997489   0.9999839
0.9943477   0.9979780   0.9793432   0.9827570   0.9787913   0.9839376
0.9945110   0.9942966   1.0034076   1.0070229   1.0071373   1.0016926
0.9994804   1.0026101   0.9960772   0.9960150   1.0011050   0.9876471
1.0092209   1.0017796   0.9978963   0.9911501   0.9918957   0.9926565
0.9898755   0.9949019   0.9852397   0.9867737   0.9965076   0.9998903
1.0111372   1.0060065   1.0009039   1.0006184   0.9976556   0.9976374
0.9960649   0.9934885   0.9869548   0.9850074   0.9807008   0.9775355
0.9773019   0.9881851   0.9939312   1.0021803   0.9985499   0.9886850
0.9943004   0.9915441   0.9912098   0.9909173   1.0026755   1.0076636
1.0098879   1.0090894   1.0145826   1.0138409   1.0181295   1.0157209
1.0183889   1.0095126   1.0015244   0.9989355   0.9995974   0.9974639
0.9937332   1.0020231   1.0184969   0.9932171   1.0103685   1.0128908
0.9980461   1.0097957   1.0086505   1.0134715   1.0132390   1.0129996
1.0130092   1.0097461   1.0021690   1.0074589   0.9980029   1.0012732
1.0037335   1.0025347   1.0137974   1.0141605   1.0164472   1.0150040
1.0149570   0.9997937   1.0045944   1.0037962   1.0024823   1.0111722
1.0109644   1.0092914   1.0095810   1.0056475   0.9991123   1.0083076
1.0059501   1.0064257   1.0092122   1.0126474   1.0131014   1.0114805
1.0148476   1.0115037   1.0114121   1.0097720   1.0048869   1.0015759
0.9952724   0.9931111   0.9909603   0.9972011   0.9912141   0.9825342
0.9874809   1.0016816   0.9953574   0.9854250   0.9821411   0.9780771
0.9699385   0.9703686   0.9704494   0.9677187   0.9668405   0.9606424
0.9663249   0.9688659   0.9670556   0.9622032   0.9598940   0.9630442
0.9636842   0.9643576   0.9628003   0.9564830   0.9541664   0.9488055
0.9375399   0.9423208   0.9418404   0.9436679   0.9459773   0.9390522
0.9365175   0.9381257   0.9357675   0.9463831   0.9688681   0.9576476
0.9606164   0.9697394   0.9702057   0.9626252   0.9755047   0.9731988
0.9849498   0.9851188   0.9946629   0.9908806   0.9859190   0.9843445
0.9833725   0.9834782   0.9942278   1.0018886   0.9999894   1.0075685
1.0029034   0.9933389   0.9974701   0.9970261   0.9893745   0.9846290
0.9893770   0.9881775   0.9911121   0.9861506   0.9901754   0.9877938
0.9893126   0.9928887   0.9738619   0.9842536   0.9867339   0.9902634
0.9962379   0.9951714   0.9891612   0.9845790   0.9753436   0.9732766
0.9761791   0.9812356   0.9765410   0.9767619   0.9757547   0.9792436
0.9759251   0.9770137   0.9761230   0.9694174   0.9681944   0.9703756
0.9642834   0.9670937   0.9750917   0.9763824   0.9770331   0.9730111
0.9615260   0.9601758   0.9618026   0.9712691   0.9668027   0.9655906
0.9731409   0.9597225   0.9648913   0.9660131   0.9582672   0.9464010
0.9507966   0.9494306   0.9489067   0.9480289   0.9520589   0.9308391
0.9323908   0.9331113   0.9388099   0.9426350   0.9455532   0.9387578
0.9447540   0.9335620   0.9424365   0.9487729   0.9485238   0.9545642
0.9531171   0.9572966   0.9509403   0.9427511   0.9453074   0.9453166
0.9453574   0.9455888   0.9467074   0.9595790   0.9566937   0.9593015
0.9690824   0.9815140   0.9816517   0.9822476   0.9805475   0.9862441
0.9838639   0.9790109   0.9725777   0.9725615   0.9724065   0.9829991
0.9822011   0.9972514   0.9946699   0.9976121   0.9927880   0.9900972
0.9894332   0.9925803   0.9958652   0.9902007   0.9851242   0.9782739
0.9688362   0.9681005   0.9706558   0.9633604   0.9584484   0.9486352
0.9488711   0.9473973   0.9566953   0.9599566   0.9594907   0.9584834
0.9608109   0.9590279   0.9675558   0.9688224   0.9620963   0.9563413
0.9567451   0.9633974   0.9731145   0.9823517   0.9801671   0.9762702
0.9754506   0.9763630   0.9763836   0.9649330   0.9683191   0.9642861
0.9648911   0.9749512   0.9746597   0.9755248   0.9812818   0.9758659
0.9748355   0.9731477   0.9712285   0.9693750   0.9649782   0.9656457
0.9613534   0.9529915   0.9588030   0.9585586   0.9581039   0.9558853
0.9494286   0.9453163   0.9485894   0.9443655   0.9410013   0.9398571
0.9423736   0.9395512   0.9405745   0.9478481   0.9450182   0.9431835
0.9476105   0.9569631   0.9666123   0.9530332   0.9649806   0.9648459
0.9641679   0.9599322   0.9596552   0.9455167   0.9480911   0.9472699
0.9582628   0.9640917   0.9633346   0.9654492   0.9694056   0.9666986
0.9655230   0.9719265   0.9714675   0.9688959   0.9672114   0.9658833
0.9598252   0.9604996   0.9614628   0.9611191   0.9579010   0.9607657
0.9588666   0.9522149   0.9611287   0.9526880   0.9511899   0.9411758
0.9400861   0.9379408   0.9381994   0.9317811   0.9314084   0.9303385
0.9343501   0.9361397   0.9349629   0.9403116   0.9382509   0.9469812
0.9477896   0.9479326   0.9428339   0.9419929   0.9356396   0.9368341
0.9419386   0.9419332   0.9558077   0.9502572   0.9475099   0.9388221
0.9401251   0.9403910   0.9581273   0.9518384   0.9563702   0.9565591
0.9514923   0.9502365   0.9502520   0.9499343   0.9500857   0.9531553
0.9531257   0.9560714   0.9535834   0.9484421   0.9487691   0.9493161
0.9480686   0.9498247   0.9540854   0.9606719   0.9545756   0.9549190
0.9606452   0.9619533   0.9554232   0.9549402   0.9557127   0.9552439
0.9617134   0.9600486   0.9580655   0.9504170   0.9541112   0.9439702
0.9445095   0.9453825   0.9447395   0.9523447   0.9425768   0.9432991
0.9455210   0.9413011   0.9461621   0.9416154   0.9401788   0.9593495
0.9567260   0.9509702   0.9526243   0.9577976   0.9565468   0.9608162
0.9440810   0.9545634   0.9545061   0.9601679   0.9541451   0.9592059
0.9618318   0.9664130   0.9685114   0.9699344   0.9682402   0.9642179
0.9661358   0.9723146   0.9727923   0.9776344   0.9766751   0.9753368
0.9864794   0.9883276   0.9867984   0.9862032   0.9856044   0.9889648
0.9880506   0.9876441   1.0012574   1.0018708   0.9999336   0.9921821
0.9917427   0.9845128   0.9855596   0.9891732   0.9883356   0.9909067
1.0010912   0.9966952   0.9973497   1.0057952   1.0060805   1.0083858
1.0074893   1.0024617   1.0050907   1.0109477   1.0072897   1.0087605
1.0074492   1.0083562   1.0065399   1.0015208   1.0018574   0.9938507
0.9970073   0.9938930   0.9833204   0.9813194   0.9774193   0.9851849
0.9802031   0.9804850   0.9842956   0.9944716   0.9963806   0.9946960
0.9897333   0.9908242   0.9928571   0.9992491   1.0009432   0.9986421
0.9964436   0.9948750   0.9879997   0.9813102   0.9769123   0.9788404
0.9778123   0.9862569   0.9967294   1.0030041   0.9947487   0.9968270
0.9872961   0.9824842   0.9747529   0.9701580   0.9740390   0.9657890
0.9574871   0.9613128   0.9604278   0.9553396   0.9451054   0.9421687
0.9446395   0.9447698   0.9444713   0.9511208   0.9496521   0.9512348
0.9538886   0.9595150   0.9591444   0.9637537   0.9627611   0.9626007
0.9613662   0.9638118   0.9606159   0.9651412   0.9655889   0.9645540
0.9671961   0.9644123   0.9563796   0.9459771   0.9478667   0.9455914
0.9434510   0.9434381   0.9456145   0.9408001   0.9376099   0.9364604
0.9394768   0.9420997   0.9348685   0.9341803   0.9371481   0.9403282
0.9380866   0.9351907   0.9311471   0.9404979   0.9438460   0.9504393
0.9634187   0.9616794   0.9646045   0.9555885   0.9680962   0.9598318
0.9560258   0.9504033   0.9445166   0.9444540   0.9427988   0.9429251
0.9271389   0.9344035   0.9351465   0.9351212   0.9331192   0.9299668
0.9364829   0.9362454   0.9360472   0.9437960   0.9451377   0.9457767
0.9434502   0.9253805   0.9449163   0.9429909   0.9329192   0.9310936
0.9368377   0.9327371   0.9383395   0.9350332   0.9347396   0.9357203
0.9367165   0.9391135   0.9482481   0.9483296   0.9513578   0.9507458
0.9537136   0.9644698   0.9607907   0.9598149   0.9632170   0.9633893
0.9583462   0.9520275   0.9526911   0.9527213   0.9511259   0.9521160
0.9544072   0.9598141   0.9643559   0.9706881   0.9742702   0.9745332
0.9714115   0.9751917   0.9779190   0.9712481   0.9732712   0.9547317
0.9560099   0.9535954   0.9492409   0.9400077   0.9377346   0.9409494
0.9340199   0.9284165   0.9278342   0.9243955   0.9254567   0.9289246
0.9291174   0.9361023   0.9281565   0.9356493   0.9387681   0.9405224
0.9419626   0.9330314   0.9337104   0.9350466   0.9360015   0.9233594
0.9282448   0.9249158   0.9335768   0.9411100   0.9358651   0.9230080
0.9188033   0.9154593   0.9148485   0.9086861   0.9091026   0.9019811
0.9064097   0.9054433   0.9161972   0.9185919   0.9170933   0.9162525
0.9232402   0.9141193   0.9138651   0.9065961   0.9122219   0.9214550
0.9200487   0.9193252   0.9219961   0.9183688   0.9273048   0.9258868
0.9282474   0.9274355   0.9286081   0.9280635   0.9310013   0.9292340
0.9264155   0.9252313   0.9256182   0.9340432   0.9319202   0.9440229
0.9406114   0.9405211   0.9430592   0.9373718   0.9365984   0.9416632
0.9341853   0.9472938   0.9531179   0.9519258   0.9499094   0.9487628
0.9491847   0.9453228   0.9451082   0.9430487   0.9485993   0.9612725
0.9705503   0.9718713   0.9731883   0.9740077   0.9704671   0.9772473
0.9786678   0.9819409   0.9745328   0.9738164   0.9733270   0.9696261
0.9709093   0.9725207   0.9728060   0.9713286   0.9706172   0.9706123
0.9707640   0.9750146   0.9742137   0.9659437   0.9659968   0.9641462
0.9707828   0.9596648   0.9587120   0.9456769   0.9352540   0.9285929
0.9243521   0.9221907   0.9181797   0.9306709   0.9195879   0.9207093
0.9261133   0.9280621   0.9276157   0.9254446   0.9240754   0.9199223
0.9282203   0.9240060   0.9258866   0.9258590   0.9388875   0.9332508
0.9319648   0.9377025   0.9282167   0.9269941   0.9339883   0.9328930
0.9338429   0.9340838   0.9346707   0.9413110   0.9404373   0.9420349
0.9467721   0.9547989   0.9438585   0.9503172   0.9518139   0.9577533
0.9512410   0.9500013   0.9569071   0.9612648   0.9678115   0.9489980
0.9638184   0.9628382   0.9665694   0.9649675   0.9669293   0.9615652
0.9643497   0.9631500   0.9600554   0.9684691   0.9654358   0.9637944
0.9659132   0.9624765   0.9616425   0.9760842   0.9759949   0.9784830
0.9747489   0.9757740   0.9578072   0.9461810   0.9443680   0.9409919
0.9458423   0.9567387   0.9588831   0.9623857   0.9650349   0.9655506
0.9656407   0.9669363   0.9672852   0.9621761   0.9668171   0.9566297
0.9638642   0.9591994   0.9528810   0.9493917   0.9456427   0.9424843
0.9319825   0.9393615   0.9265465   0.9276730   0.9277690   0.9337778
0.9412173   0.9410301   0.9404741   0.9401498   0.9409382   0.9376925
0.9379469   0.9383639   0.9376273   0.9402149   0.9393732   0.9446871
0.9447505   0.9442620   0.9541444   0.9527045   0.9461496   0.9515692
0.9479298   0.9426663   0.9454346   0.9458337   0.9467542   0.9478700
0.9433345   0.9399607   0.9402042   0.9459820   0.9454639   0.9456393
0.9485932   0.9430255   0.9456450   0.9560228   0.9535797   0.9474423
0.9505875   0.9504757   0.9542997   0.9559558   0.9547634   0.9561942
0.9438547   0.9446516   0.9466951   0.9518387   0.9619449   0.9639043
0.9612908   0.9516256   0.9560384   0.9564689   0.9547940   0.9620184
0.9535298   0.9537705   0.9508109   0.9456750   0.9451637   0.9447607
0.9454762   0.9409824   0.9527177   0.9504386   0.9446044   0.9431782
0.9433494   0.9440791   0.9403546   0.9457092   0.9450027   0.9466802
0.9456078   0.9586237   0.9552734   0.9698110   0.9803513   0.9760753
0.9668420   0.9697703   0.9775144   0.9802328   0.9806884   0.9868025
0.9885620   0.9949353   0.9949642   1.0058300   0.9994361   0.9970336
0.9901974   0.9805878   0.9825263   0.9863885   0.9862074   0.9843615
0.9831809   0.9791027   0.9786862   0.9751015   0.9711148   0.9753410
0.9728709   0.9735526   0.9695884   0.9598376   0.9682667   0.9615290
0.9641734   0.9645652   0.9655968   0.9622153   0.9434473   0.9456270
0.9486080   0.9584348   0.9523206   0.9505488   0.9508840   0.9491929
0.9479784   0.9566522   0.9613630   0.9555866   0.9601280   0.9605324
0.9676774   0.9687535   0.9728905   0.9612711   0.9566526   0.9653787
0.9681253   0.9795244   0.9747957   0.9743946   0.9704615   0.9662259
0.9647254   0.9624167   0.9590552   0.9617799   0.9629472   0.9577776
0.9605463   0.9630752   0.9645831   0.9611383   0.9618051   0.9539131
0.9595760   0.9645082   0.9658114   0.9618966   0.9589677   0.9673583
0.9618405   0.9591698   0.9573166   0.9585151   0.9689896   0.9721785
0.9795051   0.9666890   0.9657330   0.9673367   0.9693300   0.9677263
0.9648305   0.9642058   0.9651154   0.9655882   0.9699183   0.9780405
0.9812755   0.9871740   0.9821652   0.9789099   0.9794778   0.9789823
0.9728965   0.9704592   0.9664801   0.9723869   0.9789401   0.9798292
0.9817157   0.9827219   0.9885920   0.9858590   0.9860544   0.9793186
0.9774673   0.9788650   0.9810664   0.9684828   0.9671818   0.9630374
0.9630363   0.9787193   0.9950730   0.9936110   0.9925262   0.9925561
0.9953932   0.9918255   1.0058698   1.0064338   0.9970846   0.9991263
1.0005655   0.9902556   0.9891938   0.9858618   0.9864587   0.9878255
0.9853904   0.9820315   0.9879330   0.9946053   1.0015489   1.0003112
0.9992599   0.9961612   0.9957954   0.9961799   0.9936855   0.9954211
0.9945613   0.9975204   1.0085230   1.0039815   1.0044434   1.0016218
0.9949642   0.9945885   0.9918668   0.9943831   0.9958990   1.0018637
1.0021696   1.0057808   1.0003534   1.0011709   1.0132723   1.0088797
1.0107252   1.0122468   1.0110256   1.0124371   1.0087486   1.0100926
1.0073919   1.0104749   1.0101771   1.0092318   1.0140543   1.0135502
1.0087196   0.9993194   0.9993633   1.0008271   1.0011171   1.0027393
1.0156563   1.0118062   1.0142056   1.0143812   0.9953334   1.0138821
1.0058813   0.9967977   0.9951844   0.9930513   0.9902639   0.9921645
0.9917678   0.9947163   0.9872242   0.9872306   0.9872459   0.9837811
0.9852378   0.9897855   0.9918709   0.9905961   0.9935873   0.9962849
0.9956573   1.0025447   1.0016418   1.0009091   0.9956305   0.9929625
1.0008295   1.0036361   1.0074782   1.0060410   1.0091230   1.0154634
1.0140249   1.0164198   1.0147433   1.0142790   1.0061351   0.9972143
0.9979759   0.9978078   0.9978792   1.0032061   1.0040958   1.0028606
1.0025209   0.9977594   0.9705105   0.9711901   0.9677372   0.9630112
0.9602927   0.9712395   0.9664142   0.9685587   0.9691896   0.9668647
0.9622518   0.9663669   0.9698229   0.9673523   0.9680716   0.9771508
0.9778370   0.9767256   0.9743345   0.9699218   0.9735365   0.9780018
0.9735074   0.9793745   0.9795235   0.9801732   0.9852552   0.9873649
0.9846245   0.9828693   0.9839814   0.9851858   0.9920800   0.9939487
0.9931115   1.0043733   1.0095144   0.9975090   0.9948155   0.9964515
0.9965851   0.9991356   1.0142402   1.0172321   1.0228662   1.0239995
1.0281239   1.0224097   1.0178881   1.0186395   1.0108651   1.0097658
1.0064630   1.0155765   1.0215980   1.0215400   1.0197810   1.0052865
1.0015618   0.9926504   0.9870105   0.9800277   0.9749416   0.9811613
0.9820348   0.9830614   0.9908967   0.9930146   0.9890911   0.9906829
0.9892949   0.9728048   0.9785830   0.9833583   0.9824886   0.9772831
0.9903633   0.9840334   0.9856829   0.9908192   0.9867237   0.9880613
0.9911920   0.9912213   0.9859177   0.9830517   0.9901632   0.9743628
0.9769047   0.9727931   0.9771848   0.9726834   0.9751762   0.9761017
0.9753322   0.9783325   0.9742323   0.9818706   0.9649910   0.9635263
0.9680452   0.9709788   0.9782761   0.9797246   0.9855457   0.9858323
0.9837070   0.9792531   0.9683795   0.9687030   0.9672603   0.9692788
0.9649173   0.9606314   0.9670414   0.9676797   0.9731069   0.9732721
0.9645262   0.9665658   0.9633351   0.9786253   0.9755392   0.9722288
0.9746327   0.9740549   0.9840408   0.9807492   0.9800578   0.9813802
0.9816666   0.9763106   0.9757466   0.9722790   0.9718925   0.9679708
0.9636855   0.9615321   0.9648134   0.9636860   0.9569166   0.9583900
0.9599168   0.9621607   0.9619495   0.9598956   0.9583773   0.9624338
0.9615202   0.9580731   0.9508076   0.9459510   0.9469096   0.9426503
0.9444695   0.9497343   0.9470146   0.9452352   0.9450260   0.9496838
0.9434509   0.9422296   0.9426753   0.9460932   0.9476789   0.9530874
0.9589816   0.9592669   0.9472970   0.9459376   0.9384904   0.9446924
0.9384454   0.9371803   0.9259500   0.9285252   0.9286840   0.9292705
0.9255038   0.9250018   0.9354934   0.9421712   0.9471979   0.9445369
0.9554063   0.9653913   0.9559415   0.9613859   0.9572364   0.9675468
0.9641969   0.9566387   0.9570713   0.9559351   0.9560540   0.9512729
0.9558301   0.9530632   0.9557344   0.9459728   0.9457108   0.9525629
0.9501956   0.9513882   0.9497607   0.9574235   0.9555103   0.9565788
0.9515847   0.9483243   0.9466059   0.9434736   0.9496638   0.9565557
0.9562413   0.9517082   0.9508798   0.9522064   0.9623522   0.9697107
0.9783195   0.9697666   0.9750522   0.9770801   0.9788948   0.9769549
0.9783791   0.9792234   0.9802432   0.9883456   0.9790760   0.9721831
0.9606931   0.9624679   0.9675600   0.9660464   0.9638372   0.9626211
0.9601978   0.9603237   0.9579404   0.9603256   0.9617043   0.9770700
0.9900773   0.9881079   0.9944391   0.9858464   0.9842589   0.9792705
0.9825137   0.9758873   0.9705383   0.9653953   0.9692754   0.9699024
0.9726295   0.9624171   0.9645273   0.9735472   0.9630681   0.9637064
0.9703005   0.9640531   0.9458208   0.9503180   0.9544211   0.9541598
0.9616540   0.9580468   0.9602382   0.9605972   0.9599108   0.9609315
0.9619203   0.9566651   0.9571365   0.9568208   0.9565142   0.9570386
0.9529809   0.9460535   0.9476182   0.9441336   0.9426358   0.9428150
0.9466454   0.9595580   0.9651767   0.9736226   0.9781629   0.9797972
0.9805101   0.9868476   0.9841305   0.9811147   0.9780388   0.9742661
0.9758788   0.9771796   0.9757490   0.9703533   0.9579875   0.9526412
0.9513470   0.9533732   0.9522949   0.9544336   0.9531685   0.9593581
0.9709479   0.9735692   0.9738429   0.9705310   0.9698782   0.9715709
0.9769716   0.9747610   0.9742403   0.9718107   0.9633177   0.9640817
0.9625309   0.9614639   0.9615801   0.9626315   0.9615952   0.9582457
0.9537799   0.9599042   0.9605615   0.9603717   0.9698127   0.9733182
0.9719040   0.9687683   0.9729534   0.9628496   0.9638244   0.9656414
0.9596612   0.9512525   0.9471415   0.9529685   0.9513284   0.9531811
0.9561160   0.9487878   0.9507531   0.9539908   0.9724283   0.9756976
0.9736574   0.9662541   0.9648646   0.9604357   0.9631277   0.9658767
0.9660112   0.9648290   0.9654708   0.9774419   0.9738249   0.9728668
0.9772276   0.9703729   0.9696807   0.9791407   0.9740191   0.9799881
0.9795756   0.9778999   0.9731450   0.9739229   0.9838611   0.9788773
0.9807602   0.9815793   0.9801964   0.9867738   0.9842611   0.9909516
0.9868686   0.9884469   0.9874320   0.9946965   0.9961163   1.0040439
1.0006399   0.9967294   0.9997999   0.9986303   1.0020411   1.0036821
1.0138172   1.0214858   1.0173212   1.0206570   1.0212327   1.0227768
1.0150625   1.0145769   1.0145528   1.0099158   0.9989130   0.9973094
1.0023740   1.0035607   1.0133883   1.0072932   1.0024354   1.0029928
1.0016118   0.9926682   0.9931588   0.9896315   0.9804861   0.9921675
0.9943829   0.9859610   0.9820903   0.9797858   0.9771340   0.9779329
0.9917177   0.9925664   0.9898587   0.9870865   0.9915466   0.9877542
0.9751951   0.9778852   0.9805252   0.9959286   0.9990160   0.9970224
0.9972340   0.9932752   0.9914644   0.9909555   0.9925180   0.9945104
1.0020750   0.9990674   0.9941210   0.9993049   0.9944864   0.9939473
1.0007055   0.9990558   0.9962636   0.9958335   0.9992308   0.9989681
1.0084503   0.9925961   0.9909423   0.9918843   0.9869890   0.9967281
0.9885861   0.9914466   0.9971519   0.9900603   0.9906051   1.0012200
1.0071750   1.0019116   1.0003256   0.9939115   0.9986287   1.0008636
0.9988635   1.0030859   1.0073695   1.0119512   1.0100359   1.0084159
1.0026294   0.9963923   0.9995885   0.9970677   0.9972889   0.9884315
0.9867637   0.9842781   0.9752513   0.9826800   0.9862575   0.9841282
0.9765003   0.9780019   0.9783874   0.9792505   0.9782120   0.9795222
0.9826302   0.9818591   0.9846582   0.9796312   0.9756003   0.9718212
0.9718956   0.9670154   0.9740742   0.9699422   0.9685114   0.9752303
0.9732997   0.9832615   0.9870914   0.9896500   0.9785474   0.9786236
0.9813270   0.9769881   0.9629101   0.9585400   0.9542326   0.9466032
0.9508386   0.9531932   0.9551255   0.9609527   0.9621494   0.9610035
0.9689954   0.9650301   0.9736977   0.9729957   0.9721518   0.9803584
0.9680179   0.9668843   0.9565692   0.9554759   0.9547019   0.9578268
0.9643660   0.9628985   0.9666415   0.9678556   0.9689098   0.9720031
0.9762365   0.9784829   0.9789369   0.9785376   0.9819895   0.9807149
0.9763983   0.9771569   0.9769788   0.9747762   0.9816871   0.9805025
0.9824989   0.9829751   0.9841256   0.9860259   0.9759178   0.9671909
0.9675232   0.9689798   0.9603606   0.9558595   0.9523733   0.9532345
0.9532690   0.9411914   0.9413726   0.9412383   0.9530395   0.9653180
0.9640416   0.9578155   0.9581880   0.9622791   0.9649268   0.9608512
0.9569879   0.9551795   0.9574095   0.9548688   0.9466256   0.9485451
0.9637170   0.9582058   0.9734520   0.9739810   0.9727090   0.9774894
0.9796659   0.9700646   0.9725365   0.9709672   0.9712052   0.9697302
0.9668825   0.9697421   0.9669476   0.9695442   0.9695806   0.9658830
0.9666211   0.9682331   0.9665650   0.9650375   0.9639675   0.9624144
0.9638577   0.9648205   0.9686248   0.9702913   0.9690294   0.9697467
0.9692203   0.9839711   0.9838258   0.9922160   0.9911833   0.9970460
1.0048021   0.9975759   0.9995116   0.9997630   0.9977698   0.9993041
0.9932641   0.9894276   0.9861361   0.9859898   0.9931077   0.9919915
0.9942812   0.9870869   0.9827646   0.9826783   0.9823986   0.9889878
0.9887033   0.9881917   0.9906955   0.9885568   0.9748385   0.9599413
0.9610986   0.9537922   0.9560059   0.9507399   0.9479806   0.9543367
0.9517117   0.9559189   0.9527529   0.9498069   0.9542545   0.9552927
0.9549458   0.9523686   0.9558162   0.9543503   0.9603833   0.9621147
0.9649873   0.9723936   0.9751233   0.9781451   0.9758827   0.9751802
0.9718189   0.9711027   0.9730184   0.9767467   0.9764417   0.9763503
0.9763103   0.9568117   0.9586126   0.9515328   0.9520420   0.9539128
0.9529193   0.9682485   0.9733718   0.9579853   0.9592257   0.9589752
0.9576353   0.9594052   0.9631254   0.9654745   0.9657147   0.9654496
0.9655994   0.9694379   0.9658856   0.9779027   0.9766623   0.9776096
0.9730725   0.9739821   0.9765985   0.9844265   0.9801444   0.9834252
0.9826759   0.9928403   0.9943181   0.9956550   0.9871717   0.9879595
0.9867516   0.9760038   0.9785658   0.9768579   0.9750559   0.9788131
0.9878796   0.9917765   0.9864413   0.9903522   0.9888179   0.9856680
0.9835453   0.9833200   0.9855067   0.9896202   0.9860713   0.9825362
0.9790024   0.9830698   0.9809952   0.9825442   0.9852659   0.9854468
0.9749382   0.9740761   0.9942828   1.0049567   0.9989679   1.0010370
0.9943574   0.9936088   0.9927157   0.9963101   0.9977908   0.9885736
0.9883340   0.9844034   0.9771130   0.9766706   0.9760625   0.9856183
0.9888945   0.9796584   0.9781158   0.9788731   0.9773334   0.9862225
0.9810940   0.9851750   0.9851788   0.9846562   0.9782059   0.9882885
0.9796109   0.9875390   0.9820305   0.9810426   0.9899809   0.9936362
0.9928905   0.9919236   0.9941835   0.9878626   0.9886491   0.9944829
0.9952846   0.9937851   0.9995152   0.9978334   1.0007653   1.0008545
0.9991001   0.9981015   1.0013079   1.0006007   0.9954636   0.9843417
0.9758753   0.9719330   0.9711247   0.9714530   0.9677822   0.9712866
0.9747488   0.9715019   0.9852638   0.9715072   0.9744652   0.9787258
0.9762238   0.9781070   0.9749769   0.9756762   0.9828306   0.9933129
0.9976693   0.9944180   0.9921323   0.9955914   0.9908538   0.9876580
0.9886925   0.9989895   0.9989933   0.9923369   0.9954313   0.9928794
0.9908265   0.9730309   0.9724559   0.9701363   0.9639556   0.9636395
0.9637747   0.9558799   0.9656390   0.9618701   0.9694102   0.9727045
0.9756322   0.9650496   0.9596009   0.9579843   0.9581520   0.9400900
0.9410574   0.9339538   0.9240718   0.9338895   0.9333147   0.9364520
0.9347625   0.9370725   0.9328669   0.9303668   0.9384078   0.9350181
0.9316106   0.9330388   0.9403222   0.9543218   0.9574917   0.9602489
0.9626635   0.9627753   0.9612000   0.9703809   0.9697834   0.9717744
0.9693715   0.9661977   0.9676679   0.9700632   0.9640920   0.9675371
0.9677788   0.9612559   0.9555949   0.9529161   0.9628141   0.9637280
0.9628711   0.9631300   0.9701358   0.9698583   0.9692238   0.9709791
0.9654791   0.9617251   0.9646915   0.9696932   0.9665139   0.9727946
0.9833650   0.9875595   0.9983417   1.0024548   1.0022894   1.0086723
1.0091528   0.9842763   0.9642491   0.9678789   0.9659612   0.9665457
0.9693257   0.9605680   0.9603160   0.9573299   0.9542626   0.9563506
0.9558025   0.9493596   0.9499785   0.9491805   0.9398542   0.9385991
0.9404939   0.9468155   0.9572194   0.9535685   0.9552230   0.9580457
0.9580890   0.9603069   0.9608189   0.9596785   0.9542031   0.9545403
0.9482035   0.9536314   0.9570332   0.9616614   0.9607596   0.9654242
0.9677886   0.9684057   0.9612845   0.9648558   0.9638700   0.9692432
0.9597500   0.9590857   0.9585715   0.9588935   0.9652549   0.9697656
0.9671273   0.9665838   0.9588972   0.9626683   0.9604493   0.9570155
0.9598032   0.9620726   0.9605774   0.9558468   0.9516889   0.9575846
0.9545841   0.9548325   0.9549606   0.9561602   0.9522191   0.9615140
0.9606691   0.9640981   0.9628584   0.9632946   0.9618381   0.9640858
0.9646113   0.9639757   0.9636832   0.9630233   0.9644373   0.9741439
0.9691655   0.9626678   0.9572765   0.9581355   0.9662015   0.9680400
0.9670500   0.9563991   0.9390642   0.9421109   0.9443004   0.9459296
0.9537881   0.9521967   0.9567462   0.9635314   0.9615840   0.9627075
0.9532187   0.9450917   0.9484722   0.9515291   0.9466057   0.9527354
0.9446924   0.9417541   0.9435536   0.9581061   0.9570005   0.9574429
0.9478939   0.9514384   0.9530376   0.9495832   0.9456865   0.9463393
0.9412220   0.9417045   0.9428255   0.9422874   0.9439222   0.9476268
0.9443853   0.9402724   0.9468540   0.9524245   0.9571839   0.9558651
0.9516799   0.9482493   0.9444370   0.9444810   0.9431877   0.9378900
0.9406414   0.9413997   0.9348796   0.9332443   0.9341685   0.9402130
0.9408952   0.9393910   0.9320263   0.9345110   0.9365710   0.9273676
0.9280060   0.9295475   0.9303564   0.9313363   0.9315948   0.9339131
0.9268708   0.9285563   0.9244262   0.9225539   0.9268415   0.9318979
0.9347068   0.9342750   0.9410240   0.9372022   0.9380321   0.9464019
0.9449252   0.9427782   0.9406483   0.9446410   0.9487870   0.9489808
0.9485874   0.9454386   0.9465754   0.9525216   0.9454146   0.9502649
0.9426456   0.9415216   0.9474147   0.9312570   0.9381544   0.9425468
0.9350719   0.9348777   0.9357510   0.9361371   0.9341429   0.9330470
0.9398726   0.9408067   0.9452304   0.9408509   0.9424683   0.9425955
0.9420006   0.9461514   0.9488036   0.9500334   0.9442313   0.9447732
0.9428480   0.9356893   0.9406182   0.9388327   0.9315210   0.9374265
0.9372158   0.9411989   0.9440404   0.9422351   0.9436911   0.9413128
0.9398110   0.9383382   0.9350209   0.9349525   0.9366754   0.9361174
0.9382359   0.9426502   0.9504357   0.9498823   0.9519300   0.9476257
0.9408892   0.9399254   0.9297039   0.9215975   0.9207372   0.9201878
0.9136143   0.9130893   0.9197012   0.9267912   0.9308527   0.9300845
0.9396624   0.9387433   0.9286593   0.9342443   0.9343406   0.9350272
0.9362412   0.9369130   0.9368925   0.9354141   0.9383554   0.9407063
0.9393160   0.9339156   0.9322506   0.9308632   0.9306249   0.9268968
0.9366234   0.9371265   0.9378099   0.9371016   0.9374895   0.9374705
0.9419071   0.9404141   0.9607993   0.9456475   0.9518414   0.9357055
0.9419773   0.9382787   0.9243723   0.9302085   0.9260401   0.9271509
0.9274445   0.9340503   0.9339462   0.9253860   0.9210937   0.9222175
0.9182438   0.9160060   0.9195348   0.9192614   0.9221492   0.9160134
0.9111914   0.9292805   0.9216429   0.9268679   0.9249703   0.9328908
0.9322309   0.9242197   0.9285517   0.9278498   0.9343554   0.9294865
0.9438174   0.9446697   0.9426595   0.9461296   0.9526239   0.9443048
0.9461308   0.9434803   0.9454625   0.9554943   0.9463007   0.9499743
0.9504478   0.9433072   0.9457785   0.9443080   0.9474701   0.9482442
0.9452866   0.9448219   0.9424869   0.9392489   0.9393985   0.9555945
0.9511993   0.9509584   0.9449367   0.9452400   0.9428529   0.9502341
0.9531751   0.9553418   0.9564668   0.9592718   0.9545900   0.9544521
0.9581014   0.9561209   0.9683027   0.9627659   0.9618730   0.9654022
0.9687181   0.9524470   0.9556147   0.9551355   0.9526135   0.9547695
0.9586807   0.9593777   0.9603413   0.9543806   0.9534630   0.9511952
0.9535143   0.9490567   0.9515884   0.9410836   0.9348514   0.9397702
0.9397355   0.9320400   0.9315078   0.9333277   0.9377349   0.9465126
0.9401318   0.9347406   0.9374948   0.9393406   0.9372468   0.9354501
0.9224042   0.9290359   0.9293529   0.9330048   0.9350101   0.9374725
0.9381532   0.9356527   0.9389599   0.9434472   0.9429755   0.9433089
0.9442274   0.9453771   0.9401912   0.9372196   0.9392938   0.9406842
0.9405869   0.9458115   0.9408112   0.9354711   0.9277999   0.9320042
0.9253389   0.9261998   0.9395416   0.9448458   0.9402824   0.9455535
0.9402485   0.9401562   0.9459870   0.9447359   0.9448574   0.9415509
0.9437558   0.9427056   0.9348126   0.9383272   0.9452658   0.9423428
0.9388806   0.9424408   0.9490241   0.9641965   0.9581204   0.9456110
0.9441598   0.9428082   0.9448369   0.9438151   0.9448189   0.9460294
0.9454534   0.9464523   0.9587132   0.9589750   0.9584805   0.9606661
0.9634204   0.9553937   0.9568072   0.9517328   0.9443974   0.9455981
0.9437412   0.9504201   0.9495030   0.9518693   0.9573211   0.9705198
0.9633512   0.9685335   0.9694029   0.9711278   0.9699289   0.9714757
0.9685685   0.9610348   0.9670048   0.9697455   0.9749011   0.9743320
0.9705794   0.9639550   0.9666138   0.9639253   0.9826297   0.9745477
0.9691987   0.9584136   0.9575156   0.9524953   0.9479828   0.9488838
0.9473870   0.9425389   0.9441101   0.9321720   0.9396578   0.9434146
0.9443141   0.9417749   0.9469408   0.9492181   0.9532954   0.9478208
0.9459512   0.9411980   0.9405361   0.9457193   0.9378870   0.9308332
0.9287603   0.9340076   0.9363095   0.9357202   0.9316443   0.9320454
0.9336360   0.9216850   0.9177303   0.9225454   0.9212807   0.9244334
0.9254325   0.9212648   0.9230082   0.9266817   0.9242073   0.9286228
0.9363735   0.9333632   0.9397676   0.9396857   0.9412357   0.9356683
0.9427351   0.9415228   0.9426213   0.9370287   0.9379575   0.9352943
0.9288768   0.9296167   0.9332883   0.9292082   0.9328150   0.9334149
0.9375703   0.9355551   0.9336998   0.9336078   0.9352902   0.9277854
0.9264753   0.9269133   0.9264722   0.9189907   0.9159280   0.9186033
0.9244573   0.9343224   0.9241459   0.9175820   0.9164424   0.9189359
0.9240859   0.9403639   0.9344057   0.9347155   0.9294152   0.9229983
0.9312971   0.9312063   0.9322265   0.9313582   0.9250922   0.9211521
0.9183260   0.9185841   0.9135290   0.9160779   0.9121776   0.9253674
0.9290467   0.9312095   0.9288407   0.9255977   0.9195167   0.9077072
0.9043318   0.9110459   0.9089642   0.9093751   0.9183510   0.9253419
0.9265089   0.9271620   0.9174403   0.9133688   0.9150611   0.9219294
0.9211490   0.9221060   0.9272581   0.9193164   0.9263341   0.9272478
0.9325176   0.9465006   0.9478192   0.9347577   0.9394639   0.9471422
0.9415490   0.9373525   0.9434636   0.9429002   0.9391500   0.9381568
0.9433982   0.9458275   0.9459550   0.9399456   0.9363057   0.9257732
0.9258396   0.9239139   0.9071469   0.9127235   0.9157641   0.9075345
0.9077860   0.9085573   0.9067997   0.9072251   0.9103493   0.9100470
0.9095288   0.9107338   0.9115239   0.9112594   0.9215431   0.9214098
0.9195672   0.9211349   0.9149452   0.9239239   0.9195662   0.9183452
0.9283569   0.9280867   0.9285574   0.9282502   0.9363645   0.9361102
0.9279404   0.9263096   0.9328944   0.9329777   0.9358068   0.9360172
0.9372456   0.9401124   0.9387071   0.9412533   0.9368537   0.9379888
0.9397341   0.9423014   0.9511103   0.9533059   0.9579840   0.9590048
0.9556412   0.9484836   0.9468047   0.9440297   0.9410634   0.9393395
0.9398231   0.9373967   0.9358286   0.9469320   0.9441721   0.9455421
0.9387405   0.9356934   0.9468309   0.9511182   0.9513325   0.9515033
0.9565083   0.9560586   0.9590782   0.9549127   0.9553707   0.9525018
0.9425835   0.9487739   0.9497501   0.9507436   0.9549007   0.9595542
0.9509079   0.9548284   0.9581877   0.9657616   0.9692498   0.9736954
0.9696305   0.9642279   0.9651893   0.9706761   0.9681694   0.9676016
0.9617085   0.9608308   0.9568907   0.9560801   0.9604241   0.9522590
0.9484647   0.9443498   0.9389790   0.9389196   0.9305594   0.9286336
0.9303181   0.9315276   0.9351721   0.9338486   0.9495351   0.9368385
0.9326085   0.9366367   0.9367290   0.9402863   0.9423059   0.9414238
0.9412104   0.9422922   0.9435611   0.9294601   0.9306178   0.9392102
0.9339511   0.9440709   0.9491796   0.9538213   0.9562278   0.9534516
0.9478074   0.9504871   0.9493886   0.9510142   0.9515683   0.9461394
0.9551520   0.9632966   0.9476778   0.9531644   0.9531389   0.9536812
0.9519795   0.9591855   0.9610762   0.9649750   0.9632392   0.9627377
0.9820025   0.9732723   0.9750150   0.9649051   0.9632134   0.9792965
0.9828404   0.9866138   0.9757273   0.9822557   0.9860573   0.9837284
0.9873115   0.9870619   0.9891712   0.9890650   0.9846483   0.9811795
0.9778599   0.9765077   0.9677081   0.9777275   0.9783895   0.9776276
0.9798696   0.9746637   0.9787259   0.9729693   0.9811167   0.9812081
0.9851437   0.9828958   0.9805037   0.9781964   0.9672945   0.9724951
0.9810929   0.9835017   0.9854411   0.9860569   0.9879099   0.9734514
0.9792260   0.9750085   0.9750626   0.9750346   0.9772191   0.9927730
0.9984041   0.9923203   0.9926873   0.9906035   0.9924178   0.9945642
0.9855117   0.9881021   0.9772686   0.9919357   0.9889436   0.9915713
0.9936092   0.9915789   1.0021547   1.0010506   1.0006199   0.9999431
0.9973981   0.9973996   0.9926318   0.9949575   0.9894252   0.9985233
0.9950688   0.9944622   0.9877143   0.9822382   0.9766487   0.9802449
0.9804856   0.9888665   0.9892649   0.9863653   0.9867070   0.9861848
0.9863253   0.9811339   0.9804837   0.9806200   0.9812921   0.9824727
0.9842627   0.9844473   0.9796177   0.9792333   0.9741577   0.9768547
0.9742933   0.9874995   0.9811129   0.9798381   0.9869959   0.9875570
0.9916073   0.9868381   0.9864234   0.9855277   0.9851331   0.9873813
0.9815898   0.9807579   0.9686691   0.9686001   0.9734767   0.9722362
0.9719783   0.9722229   0.9713084   0.9779718   0.9897372   0.9860061
0.9818944   0.9770907   0.9891233   0.9890079   0.9900925   0.9914305
0.9893129   0.9866854   0.9864954   0.9892855   0.9888313   0.9976912
0.9936476   0.9860129   0.9898370   0.9918105   0.9897410   0.9953958
0.9982529   0.9890906   0.9820475   0.9806357   0.9713426   0.9882330
0.9922073   0.9926092   0.9907911   0.9893685   0.9901331   0.9901931
0.9932536   0.9932530   0.9898753   0.9920608   0.9799974   0.9781459
0.9804154   0.9807773   0.9742617   0.9709419   0.9713377   0.9699483
0.9669549   0.9665154   0.9690963   0.9630800   0.9596740   0.9629451
0.9624775   0.9711159   0.9644309   0.9653380   0.9599138   0.9561579
0.9546251   0.9602237   0.9593690   0.9686961   0.9735401   0.9686992
0.9696357   0.9685781   0.9867336   0.9895171   0.9971731   0.9949714
0.9986785   0.9903122   0.9860453   0.9887628   0.9884648   0.9782927
0.9785135   0.9700252   0.9643508   0.9671277   0.9794820   0.9703299
0.9725563   0.9749535   0.9758117   0.9720534   0.9676191   0.9740402
0.9716767   0.9703843   0.9696591   0.9514430   0.9590760   0.9639296
0.9690279   0.9738407   0.9662548   0.9790280   0.9750174   0.9761936
0.9679217   0.9688921   0.9714289   0.9718338   0.9834017   0.9781636
0.9695203   0.9614673   0.9708727   0.9677800   0.9565481   0.9569510
0.9706647   0.9723854   0.9807551   0.9801301   0.9685717   0.9685572
0.9669690   0.9665301   0.9667235   0.9657366   0.9557787   0.9599028
0.9501174   0.9489827   0.9444778   0.9565673   0.9586346   0.9567223
0.9478837   0.9469499   0.9456547   0.9517223   0.9562259   0.9616518
0.9658050   0.9675971   0.9639511   0.9666687   0.9654881   0.9580606
0.9618687   0.9599560   0.9678422   0.9712756   0.9670701   0.9688335
0.9698932   0.9719851   0.9709707   0.9735380   0.9693473   0.9596706
0.9596415   0.9597782   0.9530713   0.9514372   0.9534447   0.9607787
0.9550698   0.9571769   0.9625502   0.9746745   0.9701746   0.9643978
0.9644763   0.9681573   0.9676857   0.9665387   0.9654770   0.9661705
0.9606556   0.9665035   0.9642874   0.9675849   0.9707390   0.9771700
0.9725082   0.9771807   0.9638047   0.9714341   0.9692024   0.9703782
0.9720262   0.9769993   0.9763362   0.9861409   0.9836543   0.9830586
0.9928638   0.9858733   0.9892005   0.9814777   0.9832314   0.9777424
0.9776996   0.9747905   0.9699267   0.9720790   0.9771699   0.9617582
0.9666958   0.9695820   0.9721116   0.9659982   0.9670011   0.9621830
0.9620399   0.9641661   0.9547872   0.9551098   0.9515635   0.9515634
0.9535108   0.9540029   0.9587709   0.9629348   0.9655968   0.9500016
0.9474703   0.9527511   0.9558431   0.9540634   0.9548594   0.9563380
0.9584350   0.9605917   0.9611476   0.9577012   0.9591209   0.9636057
0.9732434   0.9745186   0.9772665   0.9860123   0.9834490   0.9931288
0.9863019   0.9762755   0.9729963   0.9773338   0.9745061   0.9725778
0.9715704   0.9703627   0.9663597   0.9639812   0.9643217   0.9660591
0.9555554   0.9509008   0.9493159   0.9446413   0.9389390   0.9387131
0.9450106   0.9605697   0.9575790   0.9596481   0.9597795   0.9728058
0.9710419   0.9779579   0.9733402   0.9746225   0.9730807   0.9736602
0.9705242   0.9694766   0.9717689   0.9704319   0.9735019   0.9650115
0.9651141   0.9655093   0.9709878   0.9660492   0.9688459   0.9644552
0.9672753   0.9778796   0.9866704   0.9762830   0.9736827   0.9665355
0.9695867   0.9614058   0.9533137   0.9591896   0.9619576   0.9510953
0.9531766   0.9560113   0.9502998   0.9435633   0.9435067   0.9416232
0.9379646   0.9422564   0.9520258   0.9519648   0.9508660   0.9591473
0.9602603   0.9611252   0.9652180   0.9623047   0.9677785   0.9652896
0.9732375   0.9699572   0.9659864   0.9752071   0.9853475   0.9804098
0.9907611   0.9918059   0.9989468   0.9999322   0.9951610   1.0103824
1.0108618   1.0081302   1.0084372   1.0106493   1.0075769   1.0119693
1.0115523   1.0103819   1.0018321   1.0004798   1.0035778   1.0058635
1.0045900   1.0008252   0.9950191   0.9927266   0.9911560   0.9959949
0.9908410   0.9954070   0.9946835   0.9942442   0.9890990   0.9867894
0.9849144   0.9843874   0.9846730   0.9860734   0.9788068   0.9755664
0.9693677   0.9606500   0.9598358   0.9580419   0.9615495   0.9612339
0.9641177   0.9633522   0.9480723   0.9478721   0.9421150   0.9510475
0.9519299   0.9574290   0.9564402   0.9611209   0.9657269   0.9687924
0.9725826   0.9679887   0.9605293   0.9538146   0.9530491   0.9511323
0.9529873   0.9526214   0.9522840   0.9504496   0.9503593   0.9491712
0.9493030   0.9467322   0.9445433   0.9439758   0.9423072   0.9426419
0.9495564   0.9459327   0.9532676   0.9413694   0.9311470   0.9343730
0.9449812   0.9447734   0.9420768   0.9481231   0.9416448   0.9467816
0.9437385   0.9468953   0.9479682   0.9472059   0.9416158   0.9364662
0.9406133   0.9436781   0.9431128   0.9446652   0.9498105   0.9442857
0.9406917   0.9391613   0.9482246   0.9561909   0.9469654   0.9478481
0.9455873   0.9446017   0.9416451   0.9421189   0.9491515   0.9330935
0.9356043   0.9458784   0.9466581   0.9614624   0.9539789   0.9562093
0.9596151   0.9556010   0.9551124   0.9505085   0.9437883   0.9434072
0.9416115   0.9374139   0.9426932   0.9405038   0.9435365   0.9459264
0.9475511   0.9505344   0.9572022   0.9619680   0.9602851   0.9591936
0.9597081   0.9676799   0.9795220   0.9843484   0.9878008   0.9814320
0.9763586   0.9823037   0.9655970   0.9809082   0.9892597   0.9878812
0.9865883   0.9980048   1.0004004   0.9944993   0.9981422   0.9950881
1.0001000   0.9846634   0.9827403   0.9743443   0.9739342   0.9766708
0.9740082   0.9712288   0.9634212   0.9665728   0.9669067   0.9722500
0.9687625   0.9678441   0.9599805   0.9720879   0.9804390   0.9745628
0.9723973   0.9804435   0.9794971   0.9787697   0.9828925   0.9927509
0.9839617   0.9823176   0.9842517   0.9861763   0.9900435   0.9978263
0.9977761   1.0113634   1.0040793   1.0022418   1.0020505   0.9994904
1.0030865   0.9879260   0.9865547   0.9867348   0.9924037   0.9941416
0.9965851   0.9904582   0.9900816   0.9920244   0.9885928   0.9880744
0.9979070   0.9911231   0.9899034   0.9909149   0.9801145   0.9766325
0.9807543   0.9902777   0.9888904   0.9889377   0.9862732   0.9887817
0.9840396   0.9818254   0.9814390   0.9778023   0.9771661   0.9764118
0.9745034   0.9886207   0.9801486   0.9776468   0.9785988   0.9785566
0.9795166   0.9785020   0.9770697   0.9882044   0.9880011   0.9737176
0.9748296   0.9831649   0.9891769   0.9881907   0.9908764   0.9897237
0.9897152   0.9810222   0.9817620   0.9676708   0.9687043   0.9664663
0.9657112   0.9682302   0.9743166   0.9672751   0.9659183   0.9715385
0.9726482   0.9676006   0.9655087   0.9692144   0.9777121   0.9747680
0.9774070   0.9777739   0.9767143   0.9787403   0.9795713   0.9833506
0.9710869   0.9791704   0.9825124   0.9740779   0.9813863   0.9736197
0.9731776   0.9735515   0.9771146   0.9735632   0.9664703   0.9601908
0.9679121   0.9602632   0.9595348   0.9490705   0.9454281   0.9512427
0.9428492   0.9442901   0.9337108   0.9365907   0.9370084   0.9407649
0.9312375   0.9298555   0.9330198   0.9291366   0.9314460   0.9325596
0.9364992   0.9390116   0.9407942   0.9322896   0.9356790   0.9277983
0.9274438   0.9285192   0.9295856   0.9329819   0.9402314   0.9398860
0.9370725   0.9350884   0.9424506   0.9489931   0.9510865   0.9511516
0.9486506   0.9478675   0.9542488   0.9531658   0.9561432   0.9603410
0.9561950   0.9677653   0.9738297   0.9746154   0.9765938   0.9811372
0.9836825   0.9731078   0.9831967   0.9811435   0.9831042   0.9885929
0.9993373   0.9995750   1.0051085   1.0105810   1.0079721   1.0088258
0.9945516   0.9939683   0.9888166   0.9795398   0.9700129   0.9773329
0.9732248   0.9778338   0.9847036   0.9901038   0.9955680   1.0035667
1.0045446   1.0048378   1.0106764   1.0041032   1.0008264   1.0022435
1.0035354   0.9952679   0.9982594   1.0055365   1.0075851   0.9949093
0.9893800   0.9945623   0.9889198   0.9870887   0.9827653   0.9775367
0.9802004   0.9861699   0.9847981   0.9966305   0.9941880   1.0003135
1.0005058   1.0026902   1.0033265   1.0009639   1.0073907   1.0115383
1.0057154   1.0050639   1.0071414   1.0041418   1.0087821   1.0060011
1.0040922   1.0051611   1.0064298   1.0053956   1.0057491   0.9983839
1.0007777   0.9989791   0.9872895   0.9918586   0.9940806   0.9774646
0.9826905   0.9830570   0.9823456   0.9794487   0.9878276   0.9894979
0.9918257   0.9893939   0.9887885   0.9912088   0.9947913   0.9904859
0.9827874   0.9799700   0.9759104   0.9741198   0.9803479   0.9793014
0.9752245   0.9787825   0.9726681   0.9714331   0.9706064   0.9701307
0.9729379   0.9774836   0.9772170   0.9695355   0.9708953   0.9700320
0.9692623   0.9786700   0.9774739   0.9713807   0.9659536   0.9741361
0.9736104   0.9757577   0.9658450   0.9664990   0.9671726   0.9637573
0.9642098   0.9635260   0.9621835   0.9622690   0.9702579   0.9694586
0.9645696   0.9623463   0.9514126   0.9652588   0.9637352   0.9676391
0.9708284   0.9679218   0.9650122   0.9551599   0.9622532   0.9690965
0.9634650   0.9661845   0.9739972   0.9853011   0.9894045   0.9867730
0.9871151   0.9895993   0.9848202   0.9677626   0.9663829   0.9648469
0.9657258   0.9577580   0.9484554   0.9530078   0.9522649   0.9476044
0.9476385   0.9444043   0.9464991   0.9484014   0.9549423   0.9609657
0.9628116   0.9762494   0.9767975   0.9663933   0.9569280   0.9708708
0.9695069   0.9641980   0.9635976   0.9656873   0.9768733   0.9732511
0.9702234   0.9693078   0.9723638   0.9687810   0.9612670   0.9680741
0.9650356   0.9593840   0.9574274   0.9574939   0.9602047   0.9723411
0.9747294   0.9730459   0.9758641   0.9813367   0.9691799   0.9802704
0.9800066   0.9828724   0.9884289   0.9880078   0.9857686   0.9849723
0.9787709   0.9760337   0.9615905   0.9571491   0.9587421   0.9533502
0.9554213   0.9511417   0.9429467   0.9446175   0.9429097   0.9465528
0.9509451   0.9554514   0.9601298   0.9481214   0.9437549   0.9309606
0.9339640   0.9305850   0.9285586   0.9287981   0.9231948   0.9195949
0.9213849   0.9201472   0.9257272   0.9274868   0.9264899   0.9274635
0.9199531   0.9205230   0.9209826   0.9172087   0.9054901   0.9139641
0.9149535   0.9149881   0.9190841   0.9194427   0.9196861   0.9220817
0.9082223   0.9096435   0.9097161   0.9147141   0.9167317   0.9190213
0.9236049   0.9208960   0.9176877   0.9118757   0.9152982   0.9119864
0.9121370   0.9084311   0.9078516   0.9058030   0.9005486   0.8950941
0.9008504   0.9025504   0.9033586   0.9064363   0.9020433   0.9044093
0.9129199   0.9040937   0.9024348   0.9015508   0.9078599   0.9112351
0.9135831   0.9183017   0.9153460   0.9141498   0.9195411   0.9277098
0.9271124   0.9335399   0.9286284   0.9239434   0.9187902   0.9268277
0.9410616   0.9255417   0.9250273   0.9192516   0.9240671   0.9157418
0.9174062   0.9175616   0.9182098   0.9194461   0.9197078   0.9232859
0.9186612   0.9197956   0.9338492   0.9452126   0.9472255   0.9447536
0.9478119   0.9521345   0.9574423   0.9687715   0.9688608   0.9689469
0.9690205   0.9656284   0.9648193   0.9650194   0.9629828   0.9617238
0.9664474   0.9667679   0.9571256   0.9717075   0.9673172   0.9685858
0.9693306   0.9651461   0.9551512   0.9574313   0.9623421   0.9620052
0.9661989   0.9697834   0.9586371   0.9590533   0.9638637   0.9656476
0.9649222   0.9643007   0.9596443   0.9631605   0.9648266   0.9574604
0.9552423   0.9404522   0.9414886   0.9410420   0.9398091   0.9385921
0.9366528   0.9399993   0.9407932   0.9353693   0.9369062   0.9417185
0.9352801   0.9372750   0.9343109   0.9306164   0.9188809   0.9219513
0.9084245   0.9196747   0.9237441   0.9186288   0.9218490   0.9204063
0.9201684   0.9202730   0.9220537   0.9199218   0.9179292   0.9155147
0.9167030   0.9183892   0.9191940   0.9184176   0.9131205   0.9173542
0.9221559   0.9156387   0.9239303   0.9230791   0.9212104   0.9402960
0.9496740   0.9498259   0.9476717   0.9405981   0.9481280   0.9431463
0.9430487   0.9472413   0.9364411   0.9375451   0.9455446   0.9485044
0.9493770   0.9503187   0.9549683   0.9537095   0.9541137   0.9530578
0.9433109   0.9449503   0.9501768   0.9510541   0.9543001   0.9559698
0.9594739   0.9531786   0.9552904   0.9558679   0.9500060   0.9521098
0.9521187   0.9607556   0.9582500   0.9605507   0.9569974   0.9579548
0.9625628   0.9650810   0.9686157   0.9722024   0.9708490   0.9698198
0.9710172   0.9630876   0.9601837   0.9596323   0.9577525   0.9589721
0.9562005   0.9568999   0.9565397   0.9589085   0.9579400   0.9522055
0.9537222   0.9749193   0.9665331   0.9752940   0.9721069   0.9776431
0.9790578   0.9735769   0.9734029   0.9807360   0.9837925   0.9819914
0.9821358   0.9855798   0.9772337   0.9864436   0.9786247   0.9738713
0.9729450   0.9773485   0.9850808   0.9854072   0.9883201   0.9854873
0.9889290   0.9871782   0.9882778   0.9843619   0.9855921   0.9804688
